ENVI
samples = 59
lines   = 59
bands   = 270
header offset = 0
file type = ENVI Standard
data type = 4
interleave = bsq
byte order = 0
wavelength unit= nm
wavelength = {397.843,
400.085,
402.327,
404.569,
 406.812,
  409.054,
  411.296,
  413.539,
  415.781,
  418.023,
  420.266,
  422.508,
  424.75,
  426.992,
  429.235,
  431.477,
  433.719,
  435.962,
  438.204,
  440.446,
  442.688,
  444.931,
  447.173,
  449.415,
  451.658,
  453.9,
  456.142,
  458.384,
  460.627,
  462.869,
  465.111,
  467.354,
  469.596,
  471.838,
  474.081,
  476.323,
  478.565,
  480.807,
  483.05,
  485.292,
  487.534,
  489.777,
  492.019,
  494.261,
  496.503,
  498.746,
 500.988,
  503.23,
  505.473,
  507.715,
  509.957,
  512.2,
  514.442,
  516.684,
  518.926,
  521.169,
  523.411,
  525.653,
  527.896,
  530.138,
  532.38,
  534.622,
  536.865,
  539.107,
  541.349,
  543.592,
  545.834,
  548.076,
  550.318,
  552.561,
 554.803,
 557.045,
 559.288,
 561.53,
 563.772,
 566.015,
 568.257,
 570.499,
  572.741,
 574.984,
 577.226,
 579.468,
 581.711,
 583.953,
 586.195,
 588.437,
 590.68,
 592.922,
 595.164,
 597.407,
 599.649,
 601.891,
 604.134,
 606.376,
 608.618,
 610.86,
 613.103,
 615.345,
 617.587,
  619.83,
  622.072,
  624.314,
  626.556,
  628.799,
  631.041,
  633.283,
  635.526,
  637.768,
  640.01,
  642.252,
  644.495,
  646.737,
  648.979,
  651.222,
  653.464,
  655.706,
  657.949,
  660.191,
  662.433,
  664.675,
  666.918,
  669.16,
  671.402,
  673.645,
  675.887,
  678.129,
  680.371,
  682.614,
  684.856,
  687.098,
  689.341,
  691.583,
  693.825,
  696.067,
  698.31,
  700.552,
  702.794,
  705.037,
  707.279,
  709.521,
  711.764,
  714.006,
  716.248,
  718.49,
  720.733,
  722.975,
  725.217,
  727.46,
  729.702,
  731.944,
  734.186,
  736.429,
  738.671,
  740.913,
  743.156,
  745.398,
  747.64,
  749.883,
  752.125,
  754.367,
  756.609,
  758.852,
  761.094,
  763.336,
  765.579,
  767.821,
  770.063,
  772.305,
  774.548,
  776.79,
  779.032,
  781.275,
  783.517,
  785.759,
  788.001,
  790.244,
  792.486,
  794.728,
  796.971,
  799.213,
  801.455,
  803.698,
  805.94,
  808.182,
  810.424,
  812.667,
  814.909,
  817.151,
  819.394,
  821.636,
  823.878,
  826.12,
  828.363,
  830.605,
  832.847,
  835.09,
  837.332,
  839.574,
  841.816,
  844.059,
  846.301,
  848.543,
  850.786,
  853.028,
  855.27,
  857.513,
  859.755,
  861.997,
  864.239,
  866.482,
  868.724,
  870.966,
  873.209,
  875.451,
  877.693,
  879.935,
  882.178,
  884.42,
  886.662,
  888.905,
  891.147,
  893.389,
  895.632,
  897.874,
  900.116,
  902.358,
  904.601,
  906.843,
  909.085,
  911.328,
  913.57,
  915.812,
  918.054,
  920.297,
  922.539,
  924.781,
  927.024,
  929.266,
  931.508,
  933.75,
  935.993,
  938.235,
  940.477,
 942.72,
944.962,
 947.204,
 949.447,
  951.689,
  953.931,
  956.173,
 958.416,
  960.658,
  962.9,
  965.143,
 967.385,
 969.627,
  971.869,
  974.112,
  976.354,
 978.596,
 980.839,
 983.081,
  985.323,
 987.566,
  989.808,
  992.05,
 994.292,
 996.535,
 998.777,
   1001.02
}
 
